Fr√©quence (Hz)	Niveau (dB)
86,132813	-58,610512
172,265625	-44,796745
258,398438	-38,101944
344,531250	-35,783627
430,664063	-35,799393
516,796875	-45,970219
602,929688	-53,602592
689,062500	-40,328178
775,195313	-32,454292
861,328125	-36,512192
947,460938	-56,158806
1033,593750	-52,455791
1119,726563	-38,897457
1205,859375	-36,300541
1291,992188	-44,321915
1378,125000	-50,278290
1464,257813	-43,209007
1550,390625	-33,766174
1636,523438	-36,082546
1722,656250	-54,015991
1808,789063	-57,610481
1894,921875	-36,933849
1981,054688	-32,292328
2067,187500	-39,254700
2153,320313	-52,456944
2239,453125	-52,473022
2325,585938	-39,413013
2411,718750	-38,873394
2497,851563	-48,430172
2583,984375	-54,142136
2670,117188	-44,349915
2756,250000	-37,841961
2842,382813	-42,481686
2928,515625	-59,594692
3014,648438	-60,572166
3100,781250	-46,515968
3186,914063	-43,421673
3273,046875	-51,488960
3359,179688	-50,731777
3445,312500	-46,370747
3531,445313	-39,046295
3617,578125	-41,257923
3703,710938	-52,790844
3789,843750	-60,981956
3875,976563	-59,131428
3962,109375	-52,499023
4048,242188	-56,173897
4134,375000	-64,928574
4220,507813	-62,670319
4306,640625	-51,392056
4392,773438	-50,721481
4478,906250	-60,788784
4565,039063	-73,431953
4651,171875	-68,106056
4737,304688	-58,362640
4823,437500	-57,523048
4909,570313	-66,619873
4995,703125	-76,814285
5081,835938	-68,603188
5167,968750	-59,613842
5254,101563	-60,512028
5340,234375	-70,688782
5426,367188	-74,859001
5512,500000	-66,344788
5598,632813	-63,691566
5684,765625	-69,257278
5770,898438	-76,441757
5857,031250	-71,578522
5943,164063	-66,082932
6029,296875	-64,867233
6115,429688	-69,212128
6201,562500	-78,484535
6287,695313	-67,729614
6373,828125	-64,094780
6459,960938	-62,703190
6546,093750	-67,667511
6632,226563	-71,751434
6718,359375	-67,300385
6804,492188	-60,307697
6890,625000	-58,943264
6976,757813	-66,792381
7062,890625	-68,747581
7149,023438	-64,477791
7235,156250	-69,352730
7321,289063	-76,215668
7407,421875	-80,568245
7493,554688	-80,267441
7579,687500	-79,799400
7665,820313	-75,896507
7751,953125	-72,393364
7838,085938	-77,292946
7924,218750	-77,451981
8010,351563	-76,866058
8096,484375	-77,233627
8182,617188	-78,666054
8268,750000	-81,624519
8354,882813	-79,735107
8441,015625	-78,811455
8527,148438	-75,361900
8613,281250	-75,695930
8699,414063	-80,729607
8785,546875	-80,239143
8871,679688	-81,865898
8957,812500	-80,507278
9043,945313	-78,905846
9130,078125	-79,018013
9216,210938	-79,739449
9302,343750	-81,171333
9388,476563	-79,499893
9474,609375	-79,196594
9560,742188	-80,696129
9646,875000	-79,123161
9733,007813	-77,504173
9819,140625	-73,150291
9905,273438	-65,955986
9991,406250	-61,811508
10077,539063	-66,882950
10163,671875	-72,344177
10249,804688	-74,289780
10335,937500	-73,992752
10422,070313	-74,667603
10508,203125	-77,905006
10594,335938	-80,045448
10680,468750	-78,874847
10766,601563	-72,213303
10852,734375	-68,375954
10938,867188	-73,239441
11025,000000	-81,671188
11111,132813	-82,542755
11197,265625	-81,742363
11283,398438	-81,871422
11369,531250	-82,629196
11455,664063	-82,620361
11541,796875	-82,015251
11627,929688	-77,597137
11714,062500	-75,589539
11800,195313	-78,722221
11886,328125	-82,293121
11972,460938	-82,559349
12058,593750	-80,467300
12144,726563	-81,011108
12230,859375	-82,020149
12316,992188	-83,036980
12403,125000	-83,374870
12489,257813	-83,092255
12575,390625	-84,018517
12661,523438	-83,506592
12747,656250	-82,733276
12833,789063	-82,444771
12919,921875	-82,645111
13006,054688	-83,663345
13092,187500	-83,353783
13178,320313	-83,755974
13264,453125	-84,324059
13350,585938	-84,674126
13436,718750	-84,682892
13522,851563	-84,367172
13608,984375	-83,575302
13695,117188	-83,878082
13781,250000	-84,404633
13867,382813	-84,488617
13953,515625	-84,643616
14039,648438	-84,698959
14125,781250	-84,634697
14211,914063	-84,780556
14298,046875	-84,725876
14384,179688	-84,810951
14470,312500	-84,932808
14556,445313	-84,831291
14642,578125	-84,608498
14728,710938	-84,254509
14814,843750	-83,895920
14900,976563	-83,657295
14987,109375	-83,949600
15073,242188	-84,551590
15159,375000	-84,398224
15245,507813	-84,089897
15331,640625	-84,319801
15417,773438	-84,372536
15503,906250	-84,613419
15590,039063	-84,357765
15676,171875	-83,795624
15762,304688	-84,036186
15848,437500	-84,358009
15934,570313	-84,736938
16020,703125	-84,921150
16106,835938	-84,804077
16192,968750	-84,829102
16279,101563	-84,925308
16365,234375	-84,839905
16451,367188	-85,175529
16537,500000	-85,027390
16623,632813	-84,232925
16709,765625	-84,069389
16795,898438	-84,368477
16882,031250	-84,342049
16968,164063	-84,537971
17054,296875	-84,536461
17140,429688	-84,220795
17226,562500	-84,075218
17312,695313	-84,502808
17398,828125	-84,936584
17484,960938	-84,836494
17571,093750	-84,213074
17657,226563	-82,883980
17743,359375	-82,809654
17829,492188	-83,768364
17915,625000	-84,423927
18001,757813	-84,764999
18087,890625	-84,984825
18174,023438	-85,072823
18260,156250	-85,133415
18346,289063	-85,222542
18432,421875	-85,037491
18518,554688	-84,841835
18604,687500	-84,820259
18690,820313	-85,171288
18776,953125	-85,274178
18863,085938	-85,130516
18949,218750	-84,951775
19035,351563	-85,204468
19121,484375	-84,465996
19207,617188	-83,361053
19293,750000	-84,809921
19379,882813	-85,160568
19466,015625	-85,198341
19552,148438	-85,174553
19638,281250	-85,377586
19724,414063	-85,761787
19810,546875	-85,890282
19896,679688	-85,858467
19982,812500	-85,870270
20068,945313	-85,893456
20155,078125	-85,987907
20241,210938	-86,000114
20327,343750	-85,861908
20413,476563	-86,115242
20499,609375	-86,445358
20585,742188	-86,682693
20671,875000	-86,814743
20758,007813	-86,912689
20844,140625	-87,107964
20930,273438	-87,085602
21016,406250	-87,081955
21102,539063	-87,377884
21188,671875	-87,571815
21274,804688	-87,534554
21360,937500	-87,617630
21447,070313	-87,660034
21533,203125	-87,590363
21619,335938	-87,761841
21705,468750	-87,897583
21791,601563	-87,994110
21877,734375	-87,938972
21963,867188	-87,611282
